电压/V	功率/mW	VT/uWb	Iset	开关状态	ILr
1.620	8.526	0.802	0.200	0.000	0.024
2.030	13.496	1.001	0.250	0.000	0.018
2.440	19.685	1.204	0.300	0.000	0.022
2.850	26.999	1.402	0.350	0.000	0.022
3.250	35.238	1.598	0.400	0.000	0.023
3.680	45.042	1.798	0.450	0.000	0.020
4.080	55.855	1.998	0.500	0.000	0.020
4.500	67.725	2.196	0.550	0.000	0.022
4.910	80.951	2.398	0.600	0.000	0.018
5.320	95.247	2.599	0.650	0.000	0.020
5.740	110.774	2.799	0.700	0.000	0.019
6.150	127.457	3.000	0.750	0.000	0.018
6.560	145.399	3.203	0.800	0.000	0.016
6.960	164.306	3.400	0.850	0.000	0.015
7.380	184.688	5.801	0.900	0.000	0.018
7.790	206.049	5.904	0.950	0.000	0.017
8.200	228.514	5.999	1.000	0.000	0.016
8.620	252.628	6.101	1.050	0.000	0.016
9.030	277.502	6.199	1.100	0.000	0.018
9.440	304.113	6.299	1.150	0.000	0.014
9.850	331.487	6.394	1.200	0.000	0.012
10.260	360.895	6.492	1.250	0.000	0.018
10.680	390.870	6.566	1.300	0.000	0.016
11.090	422.106	6.570	1.350	0.000	0.018
11.510	454.880	6.572	1.400	0.000	0.019
11.920	489.078	6.574	1.450	0.000	0.018
12.320	523.751	6.575	1.500	0.000	0.018
12.740	560.596	6.575	1.550	0.000	0.021
13.150	598.226	6.576	1.600	0.000	0.021
13.560	637.728	6.576	1.650	0.000	0.017
13.970	678.159	6.577	1.700	0.000	0.020
14.390	720.094	6.577	1.750	0.000	0.020
14.800	762.704	6.578	1.800	0.000	0.018
15.210	806.609	6.578	1.850	0.000	0.020
15.620	852.063	6.578	1.900	0.000	0.016
16.040	899.227	6.579	1.950	0.000	0.020
16.440	947.076	6.579	2.000	0.000	0.018
16.850	995.621	6.579	2.050	0.000	0.020
17.280	1046.377	6.580	2.100	0.000	0.019
17.690	1098.248	6.580	2.150	0.000	0.019
18.110	1151.687	6.580	2.200	0.000	0.017
18.520	1205.526	6.580	2.250	0.000	0.020
18.940	1261.403	6.581	2.300	0.000	0.020
19.350	1317.797	6.581	2.350	0.000	0.015
19.770	1375.888	6.581	2.400	0.000	0.018
20.170	1434.488	6.581	2.450	0.000	0.019
20.590	1494.709	6.581	2.500	0.000	0.015
21.000	1555.533	6.582	2.550	0.000	0.015
21.410	1617.986	6.582	2.600	0.000	0.017
21.820	1681.298	6.582	2.650	0.000	0.022
22.250	1747.779	6.582	2.700	0.000	0.017
22.660	1813.176	6.582	2.750	0.000	0.017
23.070	1880.249	6.582	2.800	0.000	0.019
23.480	1949.275	6.582	2.850	0.000	0.013
23.900	2018.408	6.582	2.900	0.000	0.019
24.310	2089.560	6.583	2.950	0.000	0.018
24.730	2162.582	6.583	3.000	0.000	0.012
25.150	2234.917	6.583	3.050	0.000	0.018
25.560	2308.424	6.583	3.100	0.000	0.013
25.970	2384.241	6.583	3.150	0.000	0.013
26.370	2460.018	6.583	3.200	0.000	0.017
26.790	2537.922	6.583	3.250	0.000	0.019
27.210	2616.690	6.583	3.300	0.000	0.015
27.630	2698.003	6.583	3.350	0.000	0.016
28.040	2779.235	6.584	3.400	0.000	0.021
28.450	2861.706	6.583	3.450	0.000	0.018
28.870	2945.979	6.583	3.500	0.000	0.020
29.280	3031.256	6.584	3.550	0.000	0.014
29.690	3117.504	6.584	3.600	0.000	0.017
30.100	3205.769	6.584	3.650	0.000	0.016
30.520	3294.588	6.584	3.700	0.000	0.014
30.930	3383.973	6.584	3.750	0.000	0.019
31.340	3475.700	6.584	3.800	0.000	0.019
31.760	3570.366	6.584	3.850	0.000	0.016
32.180	3664.139	6.584	3.900	0.000	0.018
32.590	3759.371	6.584	3.950	0.000	0.014
33.000	3855.487	6.584	4.000	0.000	0.018
33.430	3955.595	6.584	4.050	0.000	0.016
33.820	4053.315	6.584	4.100	0.000	0.018
34.240	4154.177	6.584	4.150	0.000	0.019
34.670	4257.682	6.584	4.200	0.000	0.020
35.070	4358.696	6.584	4.250	0.000	0.020
35.490	4464.658	6.584	4.300	0.000	0.017
35.900	4570.251	6.584	4.350	0.000	0.019
36.310	4676.735	6.584	4.400	0.000	0.020
36.730	4787.806	6.584	4.450	0.000	0.018
37.150	4898.439	6.584	4.500	0.000	0.016
37.560	5010.184	6.584	4.550	0.000	0.021
37.980	5123.046	6.584	4.600	0.000	0.017
38.390	5237.951	6.584	4.650	0.000	0.017
38.800	5353.253	6.584	4.700	0.000	0.018
39.230	5470.563	6.584	4.750	0.000	0.020
39.640	5587.205	6.585	4.800	0.000	0.016
40.060	5706.988	6.585	4.850	0.000	0.018
40.460	5828.273	6.584	4.900	0.000	0.016
40.880	5949.519	6.585	4.950	0.000	0.020
41.290	6072.258	6.585	5.000	0.000	0.018
0.000	0.000	0.000	0.000	0.000	0.000
