电压/V	功率/mW	VT/uWb	Iset	开关状态	ILr
1.180	8.328	0.590	0.200	0.000	0.024
1.480	13.090	0.739	0.250	0.000	0.024
1.790	19.184	0.881	0.300	0.000	0.023
2.090	26.367	1.027	0.350	0.000	0.027
2.390	34.455	1.172	0.400	0.000	0.026
2.690	43.905	1.317	0.450	0.000	0.030
2.990	54.431	1.470	0.500	0.000	0.027
3.300	66.051	1.612	0.550	0.000	0.025
3.600	78.888	1.762	0.600	0.000	0.021
3.910	92.796	1.912	0.650	0.000	0.024
4.210	107.891	2.052	0.700	0.000	0.026
4.510	124.135	2.200	0.750	0.000	0.026
4.810	141.120	2.346	0.800	0.000	0.023
5.120	159.898	2.492	0.850	0.000	0.021
5.410	179.097	2.638	0.900	0.000	0.025
5.710	199.219	2.781	0.950	0.000	0.021
6.010	221.259	2.933	1.000	0.000	0.025
6.320	244.227	5.540	1.050	0.000	0.020
6.620	268.091	5.613	1.100	0.000	0.021
6.920	293.097	5.686	1.150	0.000	0.024
7.220	319.531	5.763	1.200	0.000	0.026
7.540	347.164	5.832	1.250	0.000	0.024
7.840	375.743	5.906	1.300	0.000	0.030
8.140	404.814	5.977	1.350	0.000	0.028
8.440	435.017	6.047	1.400	0.000	0.026
8.740	466.970	6.123	1.450	0.000	0.028
9.040	499.378	6.194	1.500	0.000	0.024
9.350	532.936	6.265	1.550	0.000	0.026
9.660	568.123	6.338	1.600	0.000	0.021
9.950	603.557	6.408	1.650	0.000	0.024
10.260	641.378	6.481	1.700	0.000	0.025
10.560	679.032	6.555	1.750	0.000	0.026
10.860	718.808	6.571	1.800	0.000	0.022
11.170	759.582	6.574	1.850	0.000	0.026
11.470	801.019	6.575	1.900	0.000	0.025
11.770	843.621	6.576	1.950	0.000	0.024
12.080	887.865	6.577	2.000	0.000	0.024
12.380	932.643	6.577	2.050	0.000	0.025
12.690	979.357	6.578	2.100	0.000	0.028
12.990	1026.180	6.578	2.150	0.000	0.025
13.300	1074.778	6.578	2.200	0.000	0.028
13.600	1123.822	6.579	2.250	0.000	0.028
13.910	1173.935	6.579	2.300	0.000	0.026
14.220	1226.227	6.579	2.350	0.000	0.029
14.520	1278.636	6.579	2.400	0.000	0.024
14.820	1332.186	6.579	2.450	0.000	0.030
15.120	1386.247	6.580	2.500	0.000	0.032
15.420	1441.906	6.580	2.550	0.000	0.033
15.730	1497.909	6.580	2.600	0.000	0.025
16.030	1555.889	6.580	2.650	0.000	0.027
16.330	1613.739	6.580	2.700	0.000	0.028
16.640	1675.333	6.581	2.750	0.000	0.029
16.940	1735.957	6.581	2.800	0.000	0.027
17.250	1797.433	6.581	2.850	0.000	0.027
17.560	1861.473	6.581	2.900	0.000	0.027
17.850	1924.869	6.581	2.950	0.000	0.024
18.170	1991.101	6.581	3.000	0.000	0.024
18.470	2057.880	6.582	3.050	0.000	0.027
18.770	2124.116	6.582	3.100	0.000	0.028
19.070	2193.041	6.582	3.150	0.000	0.027
19.380	2263.504	6.582	3.200	0.000	0.023
19.680	2333.999	6.582	3.250	0.000	0.026
19.990	2406.302	6.582	3.300	0.000	0.028
20.290	2480.117	6.582	3.350	0.000	0.025
20.590	2555.023	6.582	3.400	0.000	0.024
20.890	2630.083	6.583	3.450	0.000	0.027
21.200	2707.675	6.583	3.500	0.000	0.025
21.500	2784.121	6.583	3.550	0.000	0.025
21.800	2863.497	6.583	3.600	0.000	0.026
22.110	2945.019	6.583	3.650	0.000	0.029
22.410	3025.822	6.583	3.700	0.000	0.025
22.720	3109.584	6.583	3.750	0.000	0.028
23.030	3192.529	6.583	3.800	0.000	0.027
23.320	3276.717	6.583	3.850	0.000	0.026
23.630	3364.073	6.583	3.900	0.000	0.027
23.940	3452.469	6.583	3.950	0.000	0.026
24.240	3540.034	6.583	4.000	0.000	0.027
24.540	3629.271	6.583	4.050	0.000	0.020
24.850	3721.397	6.583	4.100	0.000	0.026
25.150	3812.867	6.583	4.150	0.000	0.028
25.450	3905.714	6.583	4.200	0.000	0.026
25.760	4001.816	6.583	4.250	0.000	0.023
26.060	4095.631	6.583	4.300	0.000	0.024
26.370	4193.089	6.584	4.350	0.000	0.027
26.680	4293.621	6.584	4.400	0.000	0.028
26.970	4392.514	6.584	4.450	0.000	0.025
27.280	4493.836	6.584	4.500	0.000	0.024
27.600	4598.495	6.584	4.550	0.000	0.028
27.900	4702.206	6.584	4.600	0.000	0.028
28.200	4809.033	6.584	4.650	0.000	0.026
28.510	4916.690	6.584	4.700	0.000	0.025
28.800	5021.711	6.584	4.750	0.000	0.029
29.110	5130.720	6.584	4.800	0.000	0.029
29.420	5240.558	6.584	4.850	0.000	0.027
29.730	5351.450	6.584	4.900	0.000	0.024
30.030	5464.304	6.584	4.950	0.000	0.025
30.340	5579.097	6.584	5.000	0.000	0.025
0.000	0.000	0.000	0.000	0.000	0.000
