电压/V	功率/mW	VT/uWb	Iset	开关状态	ILr
1.370	8.302	0.682	0.200	0.000	0.023
1.720	13.178	0.849	0.250	0.000	0.020
2.070	19.271	1.017	0.300	0.000	0.017
2.410	26.415	1.188	0.350	0.000	0.022
2.760	34.718	1.356	0.400	0.000	0.024
3.110	44.057	1.522	0.450	0.000	0.021
3.450	54.574	1.695	0.500	0.000	0.018
3.800	66.400	1.861	0.550	0.000	0.022
4.150	79.096	2.029	0.600	0.000	0.021
4.510	93.595	2.200	0.650	0.000	0.021
4.860	108.727	2.370	0.700	0.000	0.022
5.210	125.096	2.538	0.750	0.000	0.020
5.550	142.510	2.710	0.800	0.000	0.021
5.900	160.996	2.881	0.850	0.000	0.020
6.250	181.101	3.053	0.900	0.000	0.022
6.600	201.416	5.609	0.950	0.000	0.022
6.940	223.004	5.693	1.000	0.000	0.022
7.300	246.751	5.778	1.050	0.000	0.023
7.650	271.571	5.864	1.100	0.000	0.022
7.990	296.925	5.950	1.150	0.000	0.023
8.340	323.361	6.029	1.200	0.000	0.023
8.700	351.536	6.114	1.250	0.000	0.023
9.040	380.618	6.196	1.300	0.000	0.026
9.400	410.387	6.280	1.350	0.000	0.025
9.740	442.040	6.363	1.400	0.000	0.021
10.090	474.664	6.445	1.450	0.000	0.022
10.440	508.247	6.534	1.500	0.000	0.020
10.790	543.048	6.569	1.550	0.000	0.021
11.140	578.456	6.571	1.600	0.000	0.025
11.490	616.207	6.574	1.650	0.000	0.021
11.850	654.403	6.575	1.700	0.000	0.024
12.180	693.206	6.576	1.750	0.000	0.023
12.530	734.365	6.577	1.800	0.000	0.022
12.880	775.488	6.577	1.850	0.000	0.023
13.230	818.341	6.578	1.900	0.000	0.027
13.580	863.321	6.578	1.950	0.000	0.024
13.930	908.248	6.578	2.000	0.000	0.019
14.280	954.788	6.578	2.050	0.000	0.024
14.630	1001.584	6.579	2.100	0.000	0.017
14.980	1050.640	6.579	2.150	0.000	0.024
15.340	1101.307	6.579	2.200	0.000	0.024
15.690	1152.007	6.580	2.250	0.000	0.022
16.040	1203.810	6.580	2.300	0.000	0.022
16.390	1258.248	6.580	2.350	0.000	0.025
16.740	1312.191	6.580	2.400	0.000	0.018
17.090	1367.212	6.580	2.450	0.000	0.021
17.450	1425.356	6.581	2.500	0.000	0.021
17.790	1481.391	6.581	2.550	0.000	0.021
18.140	1541.034	6.581	2.600	0.000	0.023
18.480	1600.124	6.581	2.650	0.000	0.022
18.850	1662.716	6.581	2.700	0.000	0.022
19.190	1724.345	6.581	2.750	0.000	0.022
19.540	1788.593	6.582	2.800	0.000	0.025
19.900	1854.202	6.582	2.850	0.000	0.025
20.250	1920.210	6.582	2.900	0.000	0.025
20.600	1986.689	6.582	2.950	0.000	0.021
20.960	2054.567	6.582	3.000	0.000	0.023
21.300	2123.791	6.582	3.050	0.000	0.021
21.650	2194.675	6.582	3.100	0.000	0.025
22.000	2266.812	6.582	3.150	0.000	0.021
22.350	2339.148	6.583	3.200	0.000	0.025
22.700	2413.033	6.583	3.250	0.000	0.024
23.050	2488.604	6.583	3.300	0.000	0.027
23.400	2564.001	6.583	3.350	0.000	0.027
23.750	2642.716	6.583	3.400	0.000	0.026
24.110	2722.477	6.583	3.450	0.000	0.022
24.450	2801.430	6.583	3.500	0.000	0.029
24.810	2882.413	6.583	3.550	0.000	0.022
25.150	2963.464	6.583	3.600	0.000	0.028
25.500	3046.873	6.583	3.650	0.000	0.023
25.860	3133.429	6.583	3.700	0.000	0.027
26.210	3219.243	6.583	3.750	0.000	0.025
26.560	3307.088	6.583	3.800	0.000	0.029
26.920	3395.559	6.583	3.850	0.000	0.026
27.260	3484.850	6.583	3.900	0.000	0.024
27.610	3575.164	6.583	3.950	0.000	0.026
27.970	3668.589	6.584	4.000	0.000	0.025
28.320	3760.846	6.584	4.050	0.000	0.025
28.670	3854.156	6.584	4.100	0.000	0.027
29.010	3949.668	6.584	4.150	0.000	0.023
29.380	4047.723	6.584	4.200	0.000	0.028
29.720	4145.505	6.584	4.250	0.000	0.023
30.070	4244.044	6.584	4.300	0.000	0.026
30.420	4345.173	6.584	4.350	0.000	0.024
30.770	4447.403	6.584	4.400	0.000	0.025
31.130	4551.253	6.584	4.450	0.000	0.024
31.480	4656.317	6.584	4.500	0.000	0.025
31.830	4761.018	6.584	4.550	0.000	0.022
32.190	4868.918	6.584	4.600	0.000	0.023
32.530	4977.673	6.584	4.650	0.000	0.028
32.890	5086.438	6.584	4.700	0.000	0.023
33.240	5199.534	6.584	4.750	0.000	0.027
33.590	5309.118	6.584	4.800	0.000	0.026
33.940	5422.839	6.584	4.850	0.000	0.024
34.290	5539.419	6.584	4.900	0.000	0.023
34.640	5651.672	6.584	4.950	0.000	0.023
34.990	5770.093	6.584	5.000	0.000	0.024
0.000	0.000	0.000	0.000	0.000	0.000
