电压/V	功率/mW	VT/uWb	Iset	开关状态	ILr
2.200	10.529	1.086	0.200	0.000	0.022
2.740	16.354	1.353	0.250	0.000	0.022
3.310	23.645	1.623	0.300	0.000	0.024
3.850	32.049	1.892	0.350	0.000	0.024
4.400	41.441	2.158	0.400	0.000	0.024
4.960	52.335	2.429	0.450	0.000	0.020
5.520	64.754	2.696	0.500	0.000	0.020
6.080	78.292	2.972	0.550	0.000	0.020
6.630	93.215	3.242	0.600	0.000	0.022
7.190	109.117	3.519	0.650	0.000	0.024
7.750	126.536	3.797	0.700	0.000	0.024
8.300	144.723	5.988	0.750	0.000	0.025
8.860	164.556	6.168	0.800	0.000	0.024
9.420	185.919	6.304	0.850	0.000	0.027
9.970	207.750	6.433	0.900	0.000	0.026
10.520	231.266	6.565	0.950	0.000	0.023
11.080	255.974	6.570	1.000	0.000	0.026
11.640	282.262	6.570	1.050	0.000	0.025
12.200	309.761	6.571	1.100	0.000	0.020
12.740	338.380	6.572	1.150	0.000	0.023
13.310	368.236	6.573	1.200	0.000	0.022
13.870	400.428	6.574	1.250	0.000	0.025
14.420	432.871	6.574	1.300	0.000	0.027
14.980	467.855	6.575	1.350	0.000	0.021
15.540	503.603	6.575	1.400	0.000	0.023
16.090	541.311	6.576	1.450	0.000	0.027
16.640	579.746	6.577	1.500	0.000	0.020
17.200	620.132	6.577	1.550	0.000	0.023
17.760	662.389	6.577	1.600	0.000	0.022
18.320	704.935	6.578	1.650	0.000	0.022
18.870	749.136	6.578	1.700	0.000	0.025
19.430	795.416	6.579	1.750	0.000	0.022
19.980	842.893	6.579	1.800	0.000	0.023
20.540	891.175	6.579	1.850	0.000	0.025
21.100	941.514	6.580	1.900	0.000	0.023
21.660	994.070	6.580	1.950	0.000	0.031
22.210	1046.714	6.580	2.000	0.000	0.026
22.770	1100.790	6.580	2.050	0.000	0.025
23.320	1156.558	6.581	2.100	0.000	0.025
23.890	1214.481	6.581	2.150	0.000	0.025
24.450	1273.355	6.581	2.200	0.000	0.021
25.010	1332.153	6.581	2.250	0.000	0.021
25.560	1395.086	6.581	2.300	0.000	0.020
26.140	1460.039	6.581	2.350	0.000	0.024
26.690	1523.247	6.582	2.400	0.000	0.025
27.250	1589.847	6.582	2.450	0.000	0.024
27.800	1657.337	6.582	2.500	0.000	0.023
28.370	1726.570	6.582	2.550	0.000	0.025
28.920	1796.106	6.582	2.600	0.000	0.022
29.470	1866.790	6.582	2.650	0.000	0.023
30.040	1940.549	6.582	2.700	0.000	0.022
30.590	2015.254	6.582	2.750	0.000	0.024
31.160	2091.958	6.583	2.800	0.000	0.021
31.720	2167.858	6.583	2.850	0.000	0.024
32.280	2248.431	6.583	2.900	0.000	0.024
32.830	2328.402	6.583	2.950	0.000	0.025
33.390	2409.339	6.583	3.000	0.000	0.021
33.940	2490.823	6.583	3.050	0.000	0.020
34.500	2577.880	6.583	3.100	0.000	0.020
35.060	2663.400	6.583	3.150	0.000	0.020
35.620	2749.766	6.583	3.200	0.000	0.021
36.180	2837.893	6.583	3.250	0.000	0.029
36.730	2928.198	6.583	3.300	0.000	0.024
37.290	3018.756	6.584	3.350	0.000	0.021
37.850	3112.234	6.584	3.400	0.000	0.021
38.410	3206.728	6.584	3.450	0.000	0.024
38.960	3303.009	6.584	3.500	0.000	0.026
39.530	3400.231	6.584	3.550	0.000	0.026
40.080	3499.383	6.584	3.600	0.000	0.025
40.640	3597.205	6.584	3.650	0.000	0.022
41.200	3699.946	6.584	3.700	0.000	0.024
41.760	3803.972	6.584	3.750	0.000	0.023
42.310	3907.792	6.584	3.800	0.000	0.022
42.870	4014.008	6.584	3.850	0.000	0.023
43.430	4121.237	6.584	3.900	0.000	0.026
43.990	4230.628	6.584	3.950	0.000	0.016
44.550	4341.668	6.584	4.000	0.000	0.022
45.120	4455.442	6.584	4.050	0.000	0.020
45.660	4566.015	6.584	4.100	0.000	0.020
46.220	4680.118	6.584	4.150	0.000	0.019
46.780	4794.326	6.584	4.200	0.000	0.019
47.340	4912.874	6.585	4.250	0.000	0.021
47.900	5030.732	6.585	4.300	0.000	0.021
48.470	5154.727	6.585	4.350	0.000	0.022
49.030	5277.295	6.585	4.400	0.000	0.022
49.590	5399.276	6.585	4.450	0.000	0.023
50.150	5525.567	6.585	4.500	0.000	0.019
50.720	5655.128	6.585	4.550	0.000	0.019
51.270	5781.938	6.585	4.600	0.000	0.020
51.830	5910.978	6.585	4.650	0.000	0.021
52.390	6044.748	6.585	4.700	0.000	0.017
52.940	6174.912	6.585	4.750	0.000	0.021
53.500	6308.459	6.585	4.800	0.000	0.020
54.060	6444.169	6.585	4.850	0.000	0.019
54.620	6581.360	6.585	4.900	0.000	0.018
55.170	6717.748	6.585	4.950	0.000	0.018
55.740	6859.699	6.586	5.000	0.000	0.023
0.000	0.000	0.000	0.000	0.000	0.000
