电压/V	功率/mW	VT/uWb	Iset	开关状态	ILr
2.520	12.330	1.242	0.200	0.000	0.016
3.140	18.842	1.546	0.250	0.000	0.016
3.780	27.123	1.863	0.300	0.000	0.012
4.420	36.595	2.161	0.350	0.000	0.014
5.040	47.275	2.464	0.400	0.000	0.019
5.680	59.545	2.775	0.450	0.000	0.018
6.310	73.367	3.088	0.500	0.000	0.021
6.950	88.125	3.401	0.550	0.000	0.019
7.580	104.525	3.714	0.600	0.000	0.020
8.230	122.130	5.972	0.650	0.000	0.021
8.860	140.632	6.169	0.700	0.000	0.022
9.500	160.714	6.322	0.750	0.000	0.016
10.120	181.829	6.474	0.800	0.000	0.019
10.760	204.572	6.565	0.850	0.000	0.020
11.390	227.839	6.567	0.900	0.000	0.019
12.030	252.515	6.568	0.950	0.000	0.022
12.650	278.681	6.570	1.000	0.000	0.020
13.300	306.686	6.571	1.050	0.000	0.017
13.940	335.306	6.572	1.100	0.000	0.017
14.570	365.410	6.573	1.150	0.000	0.021
15.210	398.113	6.574	1.200	0.000	0.020
15.840	431.555	6.575	1.250	0.000	0.022
16.490	466.566	6.575	1.300	0.000	0.021
17.120	502.653	6.576	1.350	0.000	0.020
17.750	542.168	6.576	1.400	0.000	0.024
18.400	581.645	6.577	1.450	0.000	0.026
19.020	621.305	6.577	1.500	0.000	0.017
19.660	663.300	6.578	1.550	0.000	0.026
20.300	707.588	6.578	1.600	0.000	0.022
20.930	754.235	6.579	1.650	0.000	0.020
21.570	800.582	6.579	1.700	0.000	0.022
22.200	849.883	6.579	1.750	0.000	0.020
22.840	899.455	6.580	1.800	0.000	0.019
23.480	951.809	6.580	1.850	0.000	0.022
24.110	1004.507	6.580	1.900	0.000	0.021
24.750	1060.325	6.580	1.950	0.000	0.022
25.380	1116.217	6.581	2.000	0.000	0.024
26.020	1174.519	6.581	2.050	0.000	0.020
26.660	1234.113	6.581	2.100	0.000	0.022
27.290	1295.718	6.581	2.150	0.000	0.021
27.940	1359.582	6.582	2.200	0.000	0.019
28.570	1423.435	6.582	2.250	0.000	0.022
29.210	1490.191	6.582	2.300	0.000	0.022
29.860	1558.084	6.582	2.350	0.000	0.020
30.490	1628.353	6.582	2.400	0.000	0.017
31.130	1698.340	6.582	2.450	0.000	0.021
31.770	1770.606	6.582	2.500	0.000	0.018
32.410	1846.181	6.582	2.550	0.000	0.023
33.040	1921.888	6.583	2.600	0.000	0.022
33.680	1999.251	6.583	2.650	0.000	0.024
34.310	2075.266	6.583	2.700	0.000	0.024
34.960	2156.210	6.583	2.750	0.000	0.024
35.600	2238.772	6.583	2.800	0.000	0.023
36.240	2323.473	6.583	2.850	0.000	0.020
36.890	2408.607	6.583	2.900	0.000	0.019
37.520	2497.987	6.583	2.950	0.000	0.019
38.160	2584.768	6.583	3.000	0.000	0.021
38.790	2672.166	6.584	3.050	0.000	0.019
39.430	2766.034	6.584	3.100	0.000	0.020
40.060	2856.298	6.584	3.150	0.000	0.019
40.690	2951.546	6.584	3.200	0.000	0.019
41.330	3047.025	6.584	3.250	0.000	0.019
41.970	3144.686	6.584	3.300	0.000	0.019
42.600	3237.025	6.584	3.350	0.000	0.023
43.250	3339.181	6.584	3.400	0.000	0.023
43.880	3440.118	6.584	3.450	0.000	0.017
44.520	3544.238	6.584	3.500	0.000	0.019
45.150	3649.019	6.584	3.550	0.000	0.022
45.790	3753.914	6.585	3.600	0.000	0.021
46.420	3862.081	6.584	3.650	0.000	0.021
47.060	3971.958	6.584	3.700	0.000	0.023
47.710	4083.514	6.584	3.750	0.000	0.023
48.350	4195.297	6.584	3.800	0.000	0.021
48.990	4315.358	6.585	3.850	0.000	0.018
49.630	4428.694	6.585	3.900	0.000	0.020
50.270	4550.068	6.585	3.950	0.000	0.022
50.900	4667.979	6.585	4.000	0.000	0.023
51.540	4787.344	6.585	4.050	0.000	0.021
52.170	4908.958	6.585	4.100	0.000	0.024
52.810	5033.153	6.585	4.150	0.000	0.022
53.450	5164.342	6.585	4.200	0.000	0.020
54.090	5289.217	6.585	4.250	0.000	0.021
54.720	5418.244	6.585	4.300	0.000	0.022
55.370	5551.974	6.585	4.350	0.000	0.020
56.020	5685.610	6.585	4.400	0.000	0.017
56.660	5815.813	6.586	4.450	0.000	0.018
57.290	5946.518	6.586	4.500	0.000	0.022
57.930	6086.837	6.586	4.550	0.000	0.022
58.590	6224.923	6.586	4.600	0.000	0.020
59.210	6362.943	6.587	4.650	0.000	0.019
59.840	6506.762	6.587	4.700	0.000	0.018
60.490	6656.983	6.587	4.750	0.000	0.018
61.130	6795.261	6.588	4.800	0.000	0.020
61.780	6942.061	6.589	4.850	0.000	0.022
62.420	7089.118	6.589	4.900	0.000	0.021
63.050	7237.194	6.590	4.950	0.000	0.022
63.680	7386.116	6.590	5.000	0.000	0.024
0.000	0.000	0.000	0.000	0.000	0.000
