电压/V	功率/mW	VT/uWb	Iset	开关状态	ILr
0.760	8.355	0.385	0.200	0.000	0.027
0.960	13.154	0.481	0.250	0.000	0.028
1.150	19.068	0.574	0.300	0.000	0.028
1.350	25.843	0.668	0.350	0.000	0.028
1.540	33.670	0.763	0.400	0.000	0.023
1.740	42.671	0.861	0.450	0.000	0.026
1.940	52.792	0.953	0.500	0.000	0.025
2.140	63.795	1.049	0.550	0.000	0.024
2.330	75.576	1.150	0.600	0.000	0.028
2.530	88.706	1.238	0.650	0.000	0.027
2.730	102.815	1.333	0.700	0.000	0.024
2.920	117.620	1.430	0.750	0.000	0.025
3.120	133.506	1.525	0.800	0.000	0.026
3.320	150.833	1.623	0.850	0.000	0.027
3.510	168.897	1.713	0.900	0.000	0.023
3.710	187.060	1.808	0.950	0.000	0.026
3.920	206.681	1.909	1.000	0.000	0.025
4.110	227.391	1.998	1.050	0.000	0.029
4.310	248.805	2.091	1.100	0.000	0.030
4.500	270.877	2.190	1.150	0.000	0.023
4.700	294.478	2.282	1.200	0.000	0.026
4.900	318.572	2.380	1.250	0.000	0.027
5.100	344.217	2.476	1.300	0.000	0.028
5.290	370.444	2.674	1.350	0.000	0.030
5.490	397.192	3.332	1.400	0.000	0.029
5.690	425.040	3.380	1.450	0.000	0.029
5.890	453.928	5.424	1.500	0.000	0.030
6.080	482.755	5.472	1.550	0.000	0.027
6.280	513.560	5.518	1.600	0.000	0.028
6.480	544.864	5.566	1.650	0.000	0.029
6.680	577.083	5.614	1.700	0.000	0.029
6.870	609.634	5.659	1.750	0.000	0.026
7.070	643.341	5.707	1.800	0.000	0.029
7.270	678.433	5.755	1.850	0.000	0.029
7.470	714.300	5.803	1.900	0.000	0.031
7.670	750.452	5.849	1.950	0.000	0.032
7.860	787.144	5.897	2.000	0.000	0.025
8.060	826.095	5.944	2.050	0.000	0.025
8.260	865.257	5.990	2.100	0.000	0.025
8.460	906.018	6.037	2.150	0.000	0.028
8.660	947.019	6.085	2.200	0.000	0.024
8.860	989.580	6.133	2.250	0.000	0.028
9.050	1033.199	6.181	2.300	0.000	0.025
9.250	1075.617	6.225	2.350	0.000	0.026
9.450	1118.689	6.271	2.400	0.000	0.024
9.650	1162.711	6.318	2.450	0.000	0.027
9.850	1210.176	6.367	2.500	0.000	0.027
10.050	1250.044	6.412	2.550	0.000	0.026
10.250	1297.532	6.457	2.600	0.000	0.028
10.440	1346.306	6.504	2.650	0.000	0.025
10.640	1395.216	6.551	2.700	0.000	0.023
10.840	1446.777	6.569	2.750	0.000	0.025
11.040	1498.294	6.575	2.800	0.000	0.023
11.240	1552.688	6.576	2.850	0.000	0.016
11.440	1605.019	6.577	2.900	0.000	0.024
11.640	1657.550	6.578	2.950	0.000	0.023
11.830	1713.741	6.578	3.000	0.000	0.025
12.030	1768.582	6.579	3.050	0.000	0.020
12.230	1825.595	6.579	3.100	0.000	0.022
12.430	1883.406	6.579	3.150	0.000	0.024
12.630	1942.294	6.580	3.200	0.000	0.020
12.820	2001.488	6.580	3.250	0.000	0.021
13.020	2060.634	6.580	3.300	0.000	0.023
13.210	2122.248	6.580	3.350	0.000	0.024
13.420	2185.089	6.580	3.400	0.000	0.026
13.620	2249.466	6.580	3.450	0.000	0.020
13.820	2312.269	6.580	3.500	0.000	0.022
14.010	2376.518	6.581	3.550	0.000	0.018
14.220	2443.958	6.581	3.600	0.000	0.022
14.410	2510.388	6.581	3.650	0.000	0.019
14.610	2578.862	6.581	3.700	0.000	0.017
14.800	2648.588	6.581	3.750	0.000	0.023
15.010	2719.157	6.581	3.800	0.000	0.020
15.200	2789.012	6.581	3.850	0.000	0.016
15.400	2862.108	6.581	3.900	0.000	0.021
15.600	2939.149	6.581	3.950	0.000	0.021
15.800	3008.194	6.582	4.000	0.000	0.022
16.000	3080.543	6.582	4.050	0.000	0.023
16.200	3157.753	6.582	4.100	0.000	0.022
16.390	3234.727	6.582	4.150	0.000	0.024
16.600	3312.762	6.582	4.200	0.000	0.026
16.790	3391.869	6.582	4.250	0.000	0.024
17.000	3472.742	6.582	4.300	0.000	0.023
17.190	3552.838	6.582	4.350	0.000	0.022
17.390	3636.285	6.582	4.400	0.000	0.025
17.590	3722.062	6.582	4.450	0.000	0.023
17.800	3801.875	6.582	4.500	0.000	0.024
17.990	3889.024	6.582	4.550	0.000	0.020
18.200	3978.954	6.582	4.600	0.000	0.019
18.390	4061.459	6.582	4.650	0.000	0.021
18.590	4148.535	6.582	4.700	0.000	0.021
18.780	4238.967	6.582	4.750	0.000	0.023
18.980	4325.353	6.583	4.800	0.000	0.021
19.180	4416.588	6.582	4.850	0.000	0.021
19.380	4511.829	6.583	4.900	0.000	0.020
19.580	4603.640	6.583	4.950	0.000	0.023
19.780	4698.423	6.583	5.000	0.000	0.020
0.000	0.000	0.000	0.000	0.000	0.000
