电压/V	功率/mW	VT/uWb	Iset	开关状态	ILr
0.990	8.533	0.499	0.200	0.000	0.021
1.250	13.488	0.621	0.250	0.000	0.022
1.500	19.583	0.745	0.300	0.000	0.020
1.750	26.799	0.868	0.350	0.000	0.021
2.010	34.917	0.993	0.400	0.000	0.024
2.260	44.333	1.117	0.450	0.000	0.021
2.520	54.862	1.241	0.500	0.000	0.024
2.780	66.551	1.361	0.550	0.000	0.025
3.030	79.085	1.488	0.600	0.000	0.024
3.290	93.103	1.610	0.650	0.000	0.024
3.550	107.952	1.736	0.700	0.000	0.027
3.800	123.732	1.857	0.750	0.000	0.023
4.060	140.721	1.980	0.800	0.000	0.027
4.310	158.995	2.102	0.850	0.000	0.022
4.570	178.175	2.227	0.900	0.000	0.022
4.820	198.119	2.354	0.950	0.000	0.024
5.070	219.255	2.471	1.000	0.000	0.021
5.330	241.713	2.595	1.050	0.000	0.021
5.590	265.198	2.723	1.100	0.000	0.027
5.840	289.290	5.422	1.150	0.000	0.025
6.100	314.763	5.483	1.200	0.000	0.029
6.360	340.969	5.543	1.250	0.000	0.027
6.610	368.606	5.608	1.300	0.000	0.029
6.870	396.890	5.668	1.350	0.000	0.028
7.130	426.365	5.727	1.400	0.000	0.026
7.380	452.733	5.787	1.450	0.000	0.027
7.640	483.668	5.851	1.500	0.000	0.027
7.900	515.629	5.912	1.550	0.000	0.027
8.150	548.173	5.974	1.600	0.000	0.025
8.410	581.620	6.034	1.650	0.000	0.030
8.660	617.141	6.095	1.700	0.000	0.023
8.920	653.030	6.157	1.750	0.000	0.027
9.170	689.500	6.218	1.800	0.000	0.028
9.430	727.583	6.278	1.850	0.000	0.028
9.680	766.817	6.338	1.900	0.000	0.028
9.940	806.897	6.397	1.950	0.000	0.025
10.200	848.431	6.457	2.000	0.000	0.021
10.460	890.010	6.524	2.050	0.000	0.020
10.710	932.702	6.567	2.100	0.000	0.022
10.970	976.674	6.574	2.150	0.000	0.023
11.230	1021.571	6.575	2.200	0.000	0.026
11.480	1067.971	6.576	2.250	0.000	0.026
11.740	1115.384	6.577	2.300	0.000	0.026
12.000	1164.528	6.578	2.350	0.000	0.027
12.260	1213.776	6.578	2.400	0.000	0.025
12.510	1263.319	6.579	2.450	0.000	0.025
12.760	1314.190	6.579	2.500	0.000	0.024
13.020	1366.734	6.579	2.550	0.000	0.024
13.280	1419.229	6.579	2.600	0.000	0.023
13.530	1472.797	6.580	2.650	0.000	0.022
13.790	1526.547	6.580	2.700	0.000	0.020
14.050	1582.086	6.580	2.750	0.000	0.024
14.300	1639.375	6.580	2.800	0.000	0.022
14.560	1697.522	6.580	2.850	0.000	0.020
14.810	1755.540	6.580	2.900	0.000	0.024
15.080	1816.650	6.580	2.950	0.000	0.023
15.340	1877.539	6.581	3.000	0.000	0.026
15.600	1938.958	6.581	3.050	0.000	0.022
15.850	2001.016	6.581	3.100	0.000	0.025
16.100	2064.636	6.581	3.150	0.000	0.025
16.360	2129.278	6.581	3.200	0.000	0.023
16.620	2195.206	6.581	3.250	0.000	0.024
16.870	2262.203	6.581	3.300	0.000	0.023
17.130	2329.870	6.581	3.350	0.000	0.024
17.390	2397.634	6.582	3.400	0.000	0.024
17.640	2467.970	6.582	3.450	0.000	0.023
17.900	2538.345	6.582	3.500	0.000	0.021
18.150	2611.040	6.582	3.550	0.000	0.022
18.410	2683.976	6.582	3.600	0.000	0.023
18.670	2758.046	6.582	3.650	0.000	0.022
18.930	2835.119	6.582	3.700	0.000	0.022
19.180	2909.505	6.582	3.750	0.000	0.019
19.440	2986.645	6.582	3.800	0.000	0.020
19.700	3065.509	6.582	3.850	0.000	0.024
19.950	3145.496	6.582	3.900	0.000	0.023
20.210	3226.082	6.583	3.950	0.000	0.026
20.470	3308.831	6.583	4.000	0.000	0.025
20.730	3391.366	6.583	4.050	0.000	0.022
20.990	3475.625	6.583	4.100	0.000	0.025
21.250	3559.913	6.583	4.150	0.000	0.025
21.490	3647.753	6.583	4.200	0.000	0.027
21.750	3734.425	6.583	4.250	0.000	0.025
22.020	3823.486	6.583	4.300	0.000	0.029
22.270	3913.730	6.583	4.350	0.000	0.028
22.520	4000.995	6.583	4.400	0.000	0.029
22.790	4096.563	6.583	4.450	0.000	0.025
23.050	4188.789	6.583	4.500	0.000	0.023
23.300	4282.374	6.583	4.550	0.000	0.028
23.560	4379.642	6.583	4.600	0.000	0.028
23.820	4478.687	6.583	4.650	0.000	0.027
24.080	4576.258	6.583	4.700	0.000	0.027
24.340	4676.741	6.583	4.750	0.000	0.020
24.600	4771.608	6.583	4.800	0.000	0.025
24.840	4871.957	6.583	4.850	0.000	0.023
25.110	4974.845	6.583	4.900	0.000	0.024
25.360	5076.225	6.584	4.950	0.000	0.021
25.620	5182.153	6.584	5.000	0.000	0.024
0.000	0.000	0.000	0.000	0.000	0.000
